1107006U1- m_ifg 8,740
Integration time: 2,00 ms
Average: 1 scans
Nr of pixels used for smoothing: 0
Data measured with spectrometer name: 1107006U1                                                       
Timestamp [10 microsec ticks]256373440
Wave   ;Sample
[nm]   ;[counts]
360,50;-172,00
360,83;-75,000
361,17;-94,000
361,51;-121,00
361,84;-116,00
362,18;-134,00
362,51;-150,00
362,85;-75,000
363,19;-116,00
363,52;-32,000
363,86;27,000
364,20;-85,000
364,53;-152,00
364,87;-192,00
365,21;-68,000
365,54;-149,00
365,88;-11,000
366,21;-92,000
366,55;-144,00
366,89;-28,000
367,22;-17,000
367,56;-138,00
367,90;-68,000
368,23;-78,000
368,57;-110,00
368,91;-115,00
369,24;-175,00
369,58;-92,000
369,91;-121,00
370,25;-87,000
370,59;-86,000
370,92;-114,00
371,26;-126,00
371,59;3,0000
371,93;-44,000
372,27;-59,000
372,60;-97,000
372,94;-91,000
373,28;-169,00
373,61;-112,00
373,95;-53,000
374,28;-109,00
374,62;-195,00
374,96;-94,000
375,29;-140,00
375,63;9,0000
375,96;-40,000
376,30;-97,000
376,64;-41,000
376,97;-86,000
377,31;2,0000
377,64;-16,000
377,98;-14,000
378,32;-1,0000
378,65;-49,000
378,99;-67,000
379,32;14,000
379,66;51,000
380,00;-44,000
380,33;19,000
380,67;6,0000
381,00;89,000
381,34;24,000
381,67;36,000
382,01;23,000
382,35;13,000
382,68;107,00
383,02;-86,000
383,35;-50,000
383,69;-129,00
384,03;54,000
384,36;-78,000
384,70;-3,0000
385,03;103,00
385,37;40,000
385,70;-43,000
386,04;-37,000
386,38;113,00
386,71;73,000
387,05;-82,000
387,38;121,00
387,72;13,000
388,05;21,000
388,39;-91,000
388,73;37,000
389,06;10,0000
389,40;76,000
389,73;59,000
390,07;107,00
390,40;23,000
390,74;65,000
391,07;-4,0000
391,41;12,000
391,75;108,00
392,08;-18,000
392,42;137,00
392,75;86,000
393,09;24,000
393,42;32,000
393,76;187,00
394,09;88,000
394,43;167,00
394,76;54,000
395,10;18,000
395,44;165,00
395,77;42,000
396,11;142,00
396,44;-25,000
396,78;31,000
397,11;94,000
397,45;181,00
397,78;133,00
398,12;58,000
398,45;99,000
398,79;41,000
399,12;149,00
399,46;18,000
399,79;75,000
400,13;198,00
400,47;90,000
400,80;97,000
401,14;289,00
401,47;260,00
401,81;215,00
402,14;295,00
402,48;226,00
402,81;284,00
403,15;372,00
403,48;360,00
403,82;412,00
404,15;427,00
404,49;452,00
404,82;506,00
405,16;378,00
405,49;356,00
405,83;446,00
406,16;480,00
406,50;515,00
406,83;501,00
407,17;580,00
407,50;315,00
407,84;492,00
408,17;452,00
408,51;503,00
408,84;514,00
409,18;412,00
409,51;428,00
409,85;490,00
410,18;513,00
410,52;527,00
410,85;498,00
411,19;508,00
411,52;547,00
411,86;432,00
412,19;414,00
412,53;453,00
412,86;464,00
413,20;464,00
413,53;374,00
413,87;423,00
414,20;579,00
414,54;456,00
414,87;400,00
415,21;429,00
415,54;428,00
415,88;534,00
416,21;418,00
416,54;468,00
416,88;365,00
417,21;436,00
417,55;435,00
417,88;525,00
418,22;412,00
418,55;517,00
418,89;512,00
419,22;482,00
419,56;422,00
419,89;502,00
420,23;528,00
420,56;534,00
420,90;619,00
421,23;509,00
421,56;579,00
421,90;534,00
422,23;559,00
422,57;602,00
422,90;564,00
423,24;642,00
423,57;635,00
423,91;584,00
424,24;781,00
424,58;626,00
424,91;679,00
425,24;682,00
425,58;620,00
425,91;636,00
426,25;641,00
426,58;626,00
426,92;701,00
427,25;630,00
427,58;666,00
427,92;732,00
428,25;685,00
428,59;797,00
428,92;799,00
429,26;879,00
429,59;868,00
429,93;881,00
430,26;886,00
430,59;1023,0
430,93;917,00
431,26;876,00
431,60;953,00
431,93;835,00
432,26;1003,0
432,60;989,00
432,93;974,00
433,27;1169,0
433,60;1101,0
433,94;1098,0
434,27;1147,0
434,60;1247,0
434,94;1208,0
435,27;1233,0
435,61;1195,0
435,94;1183,0
436,27;1279,0
436,61;1208,0
436,94;1243,0
437,28;1384,0
437,61;1405,0
437,94;1373,0
438,28;1336,0
438,61;1442,0
438,95;1444,0
439,28;1448,0
439,61;1281,0
439,95;1372,0
440,28;1521,0
440,62;1404,0
440,95;1492,0
441,28;1516,0
441,62;1630,0
441,95;1564,0
442,29;1438,0
442,62;1560,0
442,95;1546,0
443,29;1667,0
443,62;1460,0
443,96;1549,0
444,29;1478,0
444,62;1673,0
444,96;1543,0
445,29;1598,0
445,62;1528,0
445,96;1645,0
446,29;1539,0
446,63;1644,0
446,96;1429,0
447,29;1544,0
447,63;1603,0
447,96;1739,0
448,29;1420,0
448,63;1351,0
448,96;1586,0
449,29;1628,0
449,63;1554,0
449,96;1366,0
450,30;1322,0
450,63;1555,0
450,96;1516,0
451,30;1501,0
451,63;1387,0
451,96;1343,0
452,30;1540,0
452,63;1688,0
452,96;1675,0
453,30;1350,0
453,63;1401,0
453,96;1620,0
454,30;1784,0
454,63;1661,0
454,97;1589,0
455,30;1342,0
455,63;1444,0
455,97;1716,0
456,30;1779,0
456,63;1644,0
456,97;1553,0
457,30;1468,0
457,63;1714,0
457,97;1749,0
458,30;1662,0
458,63;1499,0
458,97;1444,0
459,30;1691,0
459,63;1819,0
459,97;1721,0
460,30;1584,0
460,63;1586,0
460,97;1559,0
461,30;1787,0
461,63;1822,0
461,97;1770,0
462,30;1493,0
462,63;1446,0
462,96;1607,0
463,30;1833,0
463,63;1869,0
463,96;1816,0
464,30;1533,0
464,63;1711,0
464,96;1782,0
465,30;2128,0
465,63;1846,0
465,96;1967,0
466,30;1769,0
466,63;1647,0
466,96;1890,0
467,30;2213,0
467,63;2287,0
467,96;2051,0
468,29;1920,0
468,63;1759,0
468,96;2008,0
469,29;2359,0
469,63;2486,0
469,96;2396,0
470,29;2019,0
470,62;1924,0
470,96;2059,0
471,29;2607,0
471,62;2878,0
471,96;2862,0
472,29;2582,0
472,62;2293,0
472,95;2255,0
473,29;2681,0
473,62;3049,0
473,95;3255,0
474,29;2995,0
474,62;2466,0
474,95;2294,0
475,28;2335,0
475,62;2863,0
475,95;3384,0
476,28;3281,0
476,62;3117,0
476,95;2605,0
477,28;2548,0
477,61;2922,0
477,95;3406,0
478,28;4027,0
478,61;4178,0
478,94;3494,0
479,28;3005,0
479,61;2909,0
479,94;3121,0
480,27;3785,0
480,61;4279,0
480,94;4492,0
481,27;4322,0
481,60;3460,0
481,94;3029,0
482,27;3155,0
482,60;3762,0
482,93;4731,0
483,27;4962,0
483,60;4662,0
483,93;4002,0
484,26;3325,0
484,60;3231,0
484,93;3737,0
485,26;4819,0
485,59;5401,0
485,93;5696,0
486,26;5216,0
486,59;4366,0
486,92;3633,0
487,26;3641,0
487,59;4230,0
487,92;5182,0
488,25;5777,0
488,59;6173,0
488,92;5537,0
489,25;4573,0
489,58;3991,0
489,91;3954,0
490,25;4594,0
490,58;5327,0
490,91;6432,0
491,24;6525,0
491,58;6261,0
491,91;5029,0
492,24;4379,0
492,57;4130,0
492,90;4410,0
493,24;5537,0
493,57;6597,0
493,90;7183,0
494,23;7057,0
494,56;6335,0
494,90;5324,0
495,23;4503,0
495,56;4522,0
495,89;5021,0
496,22;5923,0
496,56;6904,0
496,89;7526,0
497,22;7359,0
497,55;6383,0
497,88;5396,0
498,22;4558,0
498,55;4567,0
498,88;5292,0
499,21;6427,0
499,54;7986,0
499,88;8647,0
500,21;8023,0
500,54;7022,0
500,87;5991,0
501,20;4925,0
501,54;4722,0
501,87;5232,0
502,20;6073,0
502,53;7486,0
502,86;8519,0
503,19;8675,0
503,53;7920,0
503,86;6822,0
504,19;5535,0
504,52;4868,0
504,85;4563,0
505,19;5202,0
505,52;6055,0
505,85;7100,0
506,18;8096,0
506,51;8423,0
506,84;7929,0
507,18;6809,0
507,51;5542,0
507,84;4852,0
508,17;4660,0
508,50;5190,0
508,83;6144,0
509,16;7513,0
509,50;8394,0
509,83;9244,0
510,16;8845,0
510,49;8170,0
510,82;6946,0
511,15;5699,0
511,49;4890,0
511,82;4872,0
512,15;5603,0
512,48;6713,0
512,81;8127,0
513,14;8767,0
513,47;9222,0
513,81;9326,0
514,14;8473,0
514,47;7435,0
514,80;6067,0
515,13;5197,0
515,46;4725,0
515,79;5116,0
516,13;6032,0
516,46;7301,0
516,79;8476,0
517,12;9268,0
517,45;9652,0
517,78;8988,0
518,11;8038,0
518,44;6934,0
518,78;5780,0
519,11;5146,0
519,44;5002,0
519,77;5073,0
520,10;5931,0
520,43;7214,0
520,76;8473,0
521,09;9611,0
521,42;9846,0
521,76;9771,0
522,09;8763,0
522,42;7748,0
522,75;6284,0
523,08;5233,0
523,41;4859,0
523,74;4896,0
524,07;5560,0
524,40;6560,0
524,74;7689,0
525,07;8948,0
525,40;9630,0
525,73;10034
526,06;10000,0
526,39;8988,0
526,72;7732,0
527,05;6667,0
527,38;5589,0
527,71;4728,0
528,04;4864,0
528,38;5090,0
528,71;6020,0
529,04;7726,0
529,37;8712,0
529,70;9986,0
530,03;10541
530,36;10966
530,69;10687
531,02;9840,0
531,35;8397,0
531,68;7293,0
532,01;5889,0
532,35;5140,0
532,68;4790,0
533,01;5323,0
533,34;6280,0
533,67;7178,0
534,00;8990,0
534,33;10319
534,66;11763
534,99;12296
535,32;12331
535,65;11541
535,98;10364
536,31;8982,0
536,64;7750,0
536,97;6618,0
537,30;5795,0
537,64;5542,0
537,97;5645,0
538,30;6015,0
538,63;6979,0
538,96;8164,0
539,29;9827,0
539,62;11237
539,95;12351
540,28;12966
540,61;13100
540,94;12364
541,27;11139
541,60;10307
541,93;8757,0
542,26;7326,0
542,59;6192,0
542,92;5934,0
543,25;5772,0
543,58;6481,0
543,91;7345,0
544,24;8650,0
544,57;10321
544,90;11976
545,23;13453
545,56;14570
545,89;14929
546,23;15147
546,56;14570
546,89;13806
547,22;12409
547,55;11109
547,88;9585,0
548,21;8043,0
548,54;7025,0
548,87;6191,0
549,20;6209,0
549,53;6633,0
549,86;7827,0
550,19;9307,0
550,52;10738
550,85;12493
551,18;14559
551,51;15818
551,84;16544
552,17;17083
552,50;16923
552,83;16485
553,16;15655
553,49;14362
553,82;12416
554,15;10903
554,48;9324,0
554,81;8249,0
555,14;7207,0
555,47;6892,0
555,80;7068,0
556,13;7782,0
556,46;8760,0
556,79;10132
557,12;11924
557,45;13514
557,78;15459
558,10;16986
558,43;17770
558,76;18752
559,09;18577
559,42;18522
559,75;18229
560,08;16865
560,41;15838
560,74;13737
561,07;11873
561,40;10246
561,73;8978,0
562,06;7609,0
562,39;6996,0
562,72;6836,0
563,05;7089,0
563,38;8125,0
563,71;9296,0
564,04;10808
564,37;12462
564,70;14706
565,03;16371
565,36;17594
565,69;18592
566,02;20051
566,35;20507
566,67;20752
567,00;20725
567,33;19690
567,66;18852
567,99;17536
568,32;15800
568,65;14012
568,98;12297
569,31;10660
569,64;9390,0
569,97;8170,0
570,30;7240,0
570,63;6957,0
570,96;6976,0
571,29;7401,0
571,62;8207,0
571,94;9418,0
572,27;10667
572,60;12368
572,93;13966
573,26;16024
573,59;18077
573,92;19356
574,25;21088
574,58;22003
574,91;22456
575,24;22725
575,57;22366
575,89;22044
576,22;21277
576,55;20096
576,88;18318
577,21;16461
577,54;14828
577,87;12869
578,20;11542
578,53;9945,0
578,86;9082,0
579,19;8034,0
579,51;7300,0
579,84;7323,0
580,17;7416,0
580,50;7831,0
580,83;8793,0
581,16;9634,0
581,49;11108
581,82;12656
582,15;14424
582,47;16079
582,80;17903
583,13;19824
583,46;20794
583,79;22342
584,12;23606
584,45;24102
584,78;24120
585,10;24869
585,43;24561
585,76;24093
586,09;23239
586,42;22636
586,75;21523
587,08;20309
587,41;18430
587,73;16993
588,06;15146
588,39;13462
588,72;12173
589,05;10875
589,38;9742,0
589,71;8869,0
590,03;8317,0
590,36;7668,0
590,69;7563,0
591,02;7655,0
591,35;7738,0
591,68;8308,0
592,01;8978,0
592,33;9749,0
592,66;11317
592,99;12525
593,32;13964
593,65;15025
593,98;16624
594,31;17780
594,63;19274
594,96;20248
595,29;22015
595,62;23224
595,95;24668
596,28;25689
596,60;26732
596,93;27532
597,26;27774
597,59;27578
597,92;27062
598,24;26366
598,57;25906
598,90;24367
599,23;23315
599,56;22021
599,89;20853
600,21;19837
600,54;18351
600,87;16894
601,20;15443
601,53;14116
601,85;12895
602,18;11484
602,51;10653
602,84;9822,0
603,17;8676,0
603,50;8064,0
603,82;7564,0
604,15;7340,0
604,48;6919,0
604,81;6934,0
605,14;7270,0
605,46;7932,0
605,79;8232,0
606,12;9293,0
606,45;9929,0
606,78;10943
607,10;12058
607,43;13142
607,76;14006
608,09;15421
608,41;16610
608,74;18251
609,07;19491
609,40;20623
609,73;21997
610,05;23353
610,38;24492
610,71;26483
611,04;27446
611,36;27928
611,69;28697
612,02;29226
612,35;29614
612,68;28867
613,00;29230
613,33;29075
613,66;28493
613,99;27969
614,31;27703
614,64;27419
614,97;26825
615,30;26603
615,62;26324
615,95;25057
616,28;23772
616,61;22657
616,93;21176
617,26;20064
617,59;18885
617,92;17656
618,24;16747
618,57;16108
618,90;15486
619,23;14428
619,55;13670
619,88;12916
620,21;11712
620,54;10917
620,86;10316
621,19;9523,0
621,52;8860,0
621,85;8194,0
622,17;7634,0
622,50;7202,0
622,83;7115,0
623,15;6788,0
623,48;6657,0
623,81;6337,0
624,14;6339,0
624,46;6312,0
624,79;6350,0
625,12;6556,0
625,45;6645,0
625,77;7009,0
626,10;7470,0
626,43;7861,0
626,75;8266,0
627,08;8606,0
627,41;9352,0
627,74;9941,0
628,06;10920
628,39;11201
628,72;12125
629,04;12930
629,37;13755
629,70;14754
630,02;15705
630,35;16346
630,68;17517
631,01;18402
631,33;18871
631,66;19585
631,99;19993
632,31;20559
632,64;21533
632,97;22053
633,29;22994
633,62;23276
633,95;23557
634,27;23868
634,60;24993
634,93;25477
635,26;26598
635,58;27077
635,91;27690
636,24;28518
636,56;28534
636,89;28645
637,22;28921
637,54;28463
637,87;28421
638,20;28587
638,52;28479
638,85;28486
639,18;28015
639,50;28020
639,83;27832
640,16;27222
640,48;27847
640,81;27997
641,14;28148
641,46;27578
641,79;27445
642,11;27062
642,44;27054
642,77;27050
643,09;27381
643,42;27360
643,75;27303
644,07;27149
644,40;27017
644,73;26109
645,05;25166
645,38;24912
645,71;24046
646,03;23601
646,36;22890
646,68;22695
647,01;22742
647,34;22371
647,66;22119
647,99;22149
648,32;21478
648,64;21307
648,97;20772
649,29;19982
649,62;19568
649,95;19449
650,27;19029
650,60;18862
650,93;18607
651,25;18406
651,58;18289
651,90;18404
652,23;18117
652,56;17723
652,88;17021
653,21;16893
653,53;16430
653,86;16023
654,19;15509
654,51;15271
654,84;15392
655,16;15037
655,49;15179
655,82;14626
656,14;14833
656,47;14380
656,79;14407
657,12;14081
657,45;13693
657,77;13194
658,10;12532
658,42;12713
658,75;12241
659,08;11849
659,40;11093
659,73;10816
660,05;10323
660,38;10130
660,70;10261
661,03;10108
661,36;9904,0
661,68;9801,0
662,01;9895,0
662,33;9970,0
662,66;9828,0
662,98;9714,0
663,31;9582,0
663,64;9215,0
663,96;9287,0
664,29;9354,0
664,61;9121,0
664,94;9019,0
665,26;8939,0
665,59;8632,0
665,92;8429,0
666,24;8487,0
666,57;8438,0
666,89;8559,0
667,22;8516,0
667,54;8181,0
667,87;7927,0
668,19;7933,0
668,52;7742,0
668,84;7648,0
669,17;7561,0
669,50;7630,0
669,82;7369,0
670,15;7283,0
670,47;7480,0
670,80;7391,0
671,12;7567,0
671,45;7472,0
671,77;7568,0
672,10;7832,0
672,42;7967,0
672,75;7677,0
673,07;7606,0
673,40;7628,0
673,72;7466,0
674,05;7394,0
674,37;7449,0
674,70;7617,0
675,03;7436,0
675,35;7607,0
675,68;7433,0
676,00;7363,0
676,33;7316,0
676,65;7156,0
676,98;7229,0
677,30;6982,0
677,63;6814,0
677,95;6706,0
678,28;6466,0
678,60;6508,0
678,93;6353,0
679,25;6487,0
679,58;6555,0
679,90;6519,0
680,23;6386,0
680,55;6507,0
680,88;6693,0
681,20;6876,0
681,53;6601,0
681,85;6461,0
682,18;6478,0
682,50;6596,0
682,83;6484,0
683,15;6447,0
683,47;6499,0
683,80;6465,0
684,12;6676,0
684,45;6746,0
684,77;6550,0
685,10;6803,0
685,42;6628,0
685,75;6498,0
686,07;6551,0
686,40;6483,0
686,72;6687,0
687,05;6920,0
687,37;6993,0
687,70;7048,0
688,02;7062,0
688,35;6838,0
688,67;7002,0
688,99;7106,0
689,32;7058,0
689,64;7399,0
689,97;7365,0
690,29;7681,0
690,62;7637,0
690,94;7897,0
691,27;7941,0
691,59;7957,0
691,92;8401,0
692,24;8337,0
692,56;8570,0
692,89;8592,0
693,21;8978,0
693,54;8953,0
693,86;9019,0
694,19;9301,0
694,51;9452,0
694,84;9531,0
695,16;9734,0
695,48;9867,0
695,81;9898,0
696,13;10304
696,46;10284
696,78;10325
697,11;10789
697,43;10971
697,75;11092
698,08;11670
698,40;11898
698,73;12678
699,05;13106
699,37;13206
699,70;13489
700,02;13909
700,35;14457
700,67;15465
700,99;15731
701,32;16285
701,64;16275
701,97;16374
702,29;16269
702,62;16505
702,94;16221
703,26;16026
703,59;15795
703,91;16067
704,24;16287
704,56;16891
704,88;17495
705,21;18209
705,53;18455
705,85;18822
706,18;19172
706,50;19180
706,83;19401
707,15;19785
707,47;20905
707,80;20920
708,12;21340
708,45;22386
708,77;23194
709,09;23479
709,42;23872
709,74;24070
710,06;25317
710,39;25155
710,71;26028
711,03;26912
711,36;27185
711,68;27626
712,01;27890
712,33;27630
712,65;27022
712,98;27321
713,30;27665
713,62;27735
713,95;28291
714,27;28489
714,59;28577
714,92;28509
715,24;28623
715,56;28617
715,89;28606
716,21;28861
716,53;28786
716,86;28184
717,18;28448
717,51;28411
717,83;28970
718,15;28355
718,48;28234
718,80;27762
719,12;27034
719,45;27191
719,77;27240
720,09;27645
720,41;27423
720,74;26955
721,06;26340
721,38;26066
721,71;26092
722,03;25074
722,35;24712
722,68;24894
723,00;24407
723,32;23772
723,65;23789
723,97;24346
724,29;25263
724,62;24819
724,94;24690
725,26;24269
725,58;23813
725,91;23100
726,23;22293
726,55;21713
726,88;20758
727,20;20551
727,52;19956
727,85;19311
728,17;18495
728,49;17747
728,81;17373
729,14;16670
729,46;15850
729,78;15458
730,11;14581
730,43;13576
730,75;13025
731,07;12601
731,40;11857
731,72;11684
732,04;11488
732,37;11252
732,69;10828
733,01;10214
733,33;9794,0
733,66;9108,0
733,98;8558,0
734,30;7996,0
734,62;7749,0
734,95;7317,0
735,27;6822,0
735,59;6559,0
735,91;6252,0
736,24;5911,0
736,56;5761,0
736,88;5471,0
737,20;5457,0
737,53;5158,0
737,85;5191,0
738,17;5220,0
738,49;4905,0
738,82;4851,0
739,14;4783,0
739,46;4543,0
739,78;4716,0
740,11;4498,0
740,43;4446,0
740,75;4648,0
741,07;4564,0
741,40;4718,0
741,72;4529,0
742,04;4621,0
742,36;4650,0
742,69;5048,0
743,01;5391,0
743,33;5727,0
743,65;6014,0
743,97;6513,0
744,30;6584,0
744,62;7067,0
744,94;7424,0
745,26;7757,0
745,59;8319,0
745,91;8754,0
746,23;9219,0
746,55;9760,0
746,87;10583
747,20;11083
747,52;11621
747,84;12556
748,16;13078
748,48;13432
748,81;13591
749,13;14247
749,45;14300
749,77;14747
750,09;15226
750,42;15861
750,74;16318
751,06;16856
751,38;17705
751,70;17945
752,03;18325
752,35;18791
752,67;19076
752,99;19914
753,31;20238
753,63;21093
753,96;21335
754,28;22478
754,60;22307
754,92;22185
755,24;22189
755,57;21657
755,89;21217
756,21;20957
756,53;20576
756,85;20576
757,17;20309
757,49;20177
757,82;20047
758,14;19642
758,46;19530
758,78;19045
759,10;18815
759,42;18586
759,75;18621
760,07;18417
760,39;18597
760,71;18565
761,03;18067
761,35;17632
761,67;17072
762,00;17094
762,32;15873
762,64;15852
762,96;15286
763,28;14494
763,60;13669
763,92;12945
764,25;12136
764,57;11609
764,89;10735
765,21;10273
765,53;9489,0
765,85;8962,0
766,17;8379,0
766,49;7548,0
766,82;6830,0
767,14;6418,0
767,46;5715,0
767,78;5330,0
768,10;5028,0
768,42;4391,0
768,74;4299,0
769,06;4073,0
769,39;4011,0
769,71;3868,0
770,03;3632,0
770,35;3489,0
770,67;3343,0
770,99;3121,0
771,31;2926,0
771,63;2988,0
771,95;3018,0
772,27;3153,0
772,60;3134,0
772,92;3573,0
773,24;3680,0
773,56;3851,0
773,88;3992,0
774,20;4541,0
774,52;4777,0
774,84;5196,0
775,16;5586,0
775,48;5818,0
775,80;6191,0
776,12;6935,0
776,45;7490,0
776,77;7815,0
777,09;8495,0
777,41;9414,0
777,73;10031
778,05;10895
778,37;10929
778,69;11527
779,01;11963
779,33;12449
779,65;13058
779,97;13531
780,29;13875
780,61;13719
780,93;13907
781,26;13887
781,58;14218
781,90;14072
782,22;14293
782,54;15057
782,86;15235
783,18;15475
783,50;15724
783,82;16142
784,14;15928
784,46;16396
784,78;16312
785,10;16594
785,42;16743
785,74;16968
786,06;16850
786,38;16408
786,70;16375
787,02;15746
787,34;15558
787,66;14763
787,98;14378
788,30;13854
788,62;12953
788,94;12417
789,26;12142
789,58;12043
789,90;11493
790,22;11432
790,55;11045
790,87;10779
791,19;10347
791,51;9884,0
791,83;9702,0
792,15;9218,0
792,47;8741,0
792,79;8132,0
793,11;7616,0
793,43;6883,0
793,75;6311,0
794,07;6020,0
794,39;5398,0
794,71;5056,0
795,03;4440,0
795,35;4032,0
795,67;3780,0
795,99;3517,0
796,30;3268,0
796,62;3098,0
796,94;2822,0
797,26;2618,0
797,58;2706,0
797,90;2518,0
798,22;2385,0
798,54;2347,0
798,86;2367,0
799,18;2583,0
799,50;2563,0
799,82;2682,0
800,14;2774,0
800,46;2992,0
800,78;3259,0
801,10;3684,0
801,42;3993,0
801,74;4163,0
802,06;4536,0
802,38;4954,0
802,70;5504,0
803,02;5797,0
803,34;6120,0
803,66;6574,0
803,98;7053,0
804,30;7538,0
804,62;7740,0
804,94;8424,0
805,26;8349,0
805,57;8817,0
805,89;9533,0
806,21;9778,0
806,53;10112
806,85;10539
807,17;11279
807,49;11833
807,81;12051
808,13;12586
808,45;12907
808,77;13248
809,09;13004
809,41;12905
809,73;13189
810,05;13069
810,36;12798
810,68;12598
811,00;12342
811,32;12022
811,64;11706
811,96;11451
812,28;11507
812,60;11301
812,92;11095
813,24;10947
813,56;10413
813,87;10112
814,19;9941,0
814,51;9633,0
814,83;9208,0
815,15;8603,0
815,47;8010,0
815,79;7355,0
816,11;6926,0
816,43;6594,0
816,75;6057,0
817,06;5697,0
817,38;5457,0
817,70;5151,0
818,02;5009,0
818,34;4572,0
818,66;4312,0
818,98;4203,0
819,30;3973,0
819,62;3581,0
819,93;3300,0
820,25;3164,0
820,57;3060,0
820,89;2793,0
821,21;2494,0
821,53;2390,0
821,85;2120,0
822,16;2024,0
822,48;2003,0
822,80;1975,0
823,12;1823,0
823,44;1936,0
823,76;1930,0
824,08;2237,0
824,40;2183,0
824,71;2170,0
825,03;2338,0
825,35;2575,0
825,67;2801,0
825,99;3158,0
826,31;3339,0
826,62;3663,0
826,94;3903,0
827,26;4305,0
827,58;4721,0
827,90;5117,0
828,22;5722,0
828,54;6134,0
828,85;6607,0
829,17;7178,0
829,49;7691,0
829,81;8365,0
830,13;8669,0
830,44;8895,0
830,76;9085,0
831,08;9166,0
831,40;9595,0
831,72;9684,0
832,04;10089
832,35;10258
832,67;10511
832,99;10588
833,31;10600
833,63;11006
833,94;10953
834,26;11416
834,58;11384
834,90;11814
835,22;11943
835,54;12057
835,85;11788
836,17;11368
836,49;10975
836,81;10624
837,13;10245
837,44;9814,0
837,76;9566,0
838,08;9351,0
838,40;8974,0
838,71;8605,0
839,03;7963,0
839,35;7563,0
839,67;7071,0
839,99;6823,0
840,30;6510,0
840,62;5737,0
840,94;5343,0
841,26;4688,0
841,57;4454,0
841,89;4127,0
842,21;3669,0
842,53;3355,0
842,85;2946,0
843,16;2657,0
843,48;2368,0
843,80;2176,0
844,12;2259,0
844,43;2095,0
844,75;1970,0
845,07;1836,0
845,39;1740,0
845,70;1673,0
846,02;1628,0
846,34;1651,0
846,66;1640,0
846,97;1790,0
847,29;1679,0
847,61;1782,0
847,93;1850,0
848,24;2022,0
848,56;2125,0
848,88;2314,0
849,20;2367,0
849,51;2703,0
849,83;3075,0
850,15;3396,0
850,47;3681,0
850,78;4034,0
851,10;4202,0
851,42;4709,0
851,73;5010,0
852,05;5109,0
852,37;5475,0
852,69;5851,0
853,00;6264,0
853,32;6623,0
853,64;7115,0
853,95;7438,0
854,27;7944,0
854,59;8374,0
854,91;8592,0
855,22;8561,0
855,54;8543,0
855,86;8744,0
856,17;8525,0
856,49;8584,0
856,81;8251,0
857,13;8243,0
857,44;8202,0
857,76;8203,0
858,08;8030,0
858,39;7990,0
858,71;8032,0
859,03;7791,0
859,34;7788,0
859,66;7677,0
859,98;7363,0
860,29;7288,0
860,61;6766,0
860,93;6682,0
861,24;6539,0
861,56;5999,0
861,88;5586,0
862,20;5437,0
862,51;4955,0
862,83;4728,0
863,15;4556,0
863,46;4253,0
863,78;3931,0
864,10;3722,0
864,41;3570,0
864,73;3288,0
865,05;3041,0
865,36;2728,0
865,68;2537,0
866,00;2269,0
866,31;2006,0
866,63;1951,0
866,94;1526,0
867,26;1392,0
867,58;1413,0
867,89;1365,0
868,21;1179,0
868,53;1203,0
868,84;1036,0
869,16;1098,0
869,48;1140,0
869,79;1310,0
870,11;1409,0
870,43;1618,0
870,74;1747,0
871,06;1898,0
871,37;1821,0
871,69;2327,0
872,01;2587,0
872,32;2990,0
872,64;3101,0
872,96;3460,0
873,27;3718,0
873,59;4002,0
873,90;4125,0
874,22;4650,0
874,54;4662,0
874,85;5109,0
875,17;5253,0
875,48;5450,0
875,80;5943,0
876,12;6093,0
876,43;6575,0
876,75;6898,0
877,06;7211,0
877,38;7538,0
877,70;7659,0
878,01;7571,0
878,33;7663,0
878,64;7692,0
878,96;7889,0
879,28;7687,0
879,59;8004,0
879,91;7763,0
880,22;7684,0
880,54;7571,0
880,86;7553,0
881,17;7400,0
881,49;7200,0
881,80;7030,0
882,12;6697,0
882,43;6588,0
882,75;6186,0
883,07;5878,0
883,38;5761,0
883,70;5321,0
884,01;4946,0
884,33;4981,0
884,64;4445,0
884,96;4300,0
885,28;3861,0
885,59;3535,0
885,91;3366,0
886,22;3216,0
886,54;2904,0
886,85;2722,0
887,17;2501,0
887,48;2345,0
887,80;2092,0
888,12;1916,0
888,43;1647,0
888,75;1601,0
889,06;1381,0
889,38;1292,0
889,69;1092,0
890,01;1113,0
890,32;941,00
890,64;959,00
890,95;952,00
891,27;1012,0
891,58;1054,0
891,90;1042,0
892,22;1160,0
892,53;1202,0
892,85;1466,0
893,16;1477,0
893,48;1597,0
893,79;1896,0
894,11;2053,0
894,42;2339,0
894,74;2502,0
895,05;2683,0
895,37;2796,0
895,68;3083,0
896,00;3287,0
896,31;3763,0
896,63;3951,0
896,94;4338,0
897,26;4413,0
897,57;4529,0
897,89;4679,0
898,20;4657,0
898,52;4607,0
898,83;4682,0
899,15;4808,0
899,46;4816,0
899,78;4900,0
900,09;5021,0
900,41;5223,0
900,72;5318,0
901,04;5330,0
901,35;5520,0
901,67;5454,0
901,98;5360,0
902,30;5601,0
902,61;5467,0
902,93;5404,0
903,24;5345,0
903,55;4980,0
903,87;4991,0
904,18;4618,0
904,50;4686,0
904,81;4511,0
905,13;4452,0
905,44;4150,0
905,76;4159,0
906,07;3609,0
906,39;3437,0
906,70;3174,0
907,02;3041,0
907,33;2557,0
907,64;2466,0
907,96;2153,0
908,27;2081,0
908,59;1900,0
908,90;1814,0
909,22;1539,0
909,53;1427,0
909,85;1200,0
910,16;1180,0
910,47;951,00
910,79;931,00
911,10;715,00
911,42;714,00
911,73;794,00
912,05;710,00
912,36;656,00
912,67;780,00
912,99;653,00
913,30;711,00
913,62;815,00
913,93;876,00
914,24;942,00
914,56;1148,0
914,87;1018,0
915,19;1164,0
915,50;1310,0
915,82;1531,0
916,13;1562,0
916,44;1821,0
916,76;1970,0
917,07;2059,0
917,39;2230,0
917,70;2441,0
918,01;2539,0
918,33;2973,0
918,64;2975,0
918,96;3381,0
919,27;3238,0
919,58;3398,0
919,90;3591,0
920,21;3735,0
920,52;3523,0
920,84;3817,0
921,15;3847,0
921,47;3949,0
921,78;4014,0
922,09;3874,0
922,41;4222,0
922,72;4399,0
923,03;4174,0
923,35;4049,0
923,66;4159,0
923,98;4189,0
924,29;4173,0
924,60;4149,0
924,92;4150,0
925,23;4069,0
925,54;4010,0
925,86;3962,0
926,17;3631,0
926,48;3627,0
926,80;3452,0
927,11;3213,0
927,42;2939,0
927,74;2602,0
928,05;2446,0
928,37;2296,0
928,68;2113,0
928,99;1871,0
929,31;1723,0
929,62;1691,0
929,93;1520,0
930,25;1307,0
930,56;1208,0
930,87;991,00
931,19;952,00
931,50;716,00
931,81;645,00
932,13;584,00
932,44;495,00
932,75;464,00
933,06;404,00
933,38;365,00
933,69;366,00
934,00;406,00
934,32;306,00
934,63;358,00
934,94;321,00
935,26;289,00
935,57;311,00
935,88;431,00
936,20;497,00
936,51;514,00
936,82;749,00
937,13;812,00
937,45;871,00
937,76;949,00
938,07;1183,0
938,39;1320,0
938,70;1284,0
939,01;1420,0
939,33;1541,0
939,64;1663,0
939,95;1872,0
940,26;2022,0
940,58;2094,0
940,89;2282,0
941,20;2253,0
941,51;2272,0
941,83;2511,0
942,14;2397,0
942,45;2647,0
942,77;2878,0
943,08;2736,0
943,39;2701,0
943,70;2858,0
944,02;2833,0
944,33;2873,0
944,64;2794,0
944,95;2931,0
945,27;2829,0
945,58;2831,0
945,89;2755,0
946,20;2703,0
946,52;2629,0
946,83;2576,0
947,14;2699,0
947,45;2513,0
947,77;2610,0
948,08;2447,0
948,39;2230,0
948,70;2139,0
949,02;2092,0
949,33;1899,0
949,64;1777,0
949,95;1745,0
950,27;1556,0
950,58;1492,0
950,89;1457,0
951,20;1208,0
951,51;1168,0
951,83;972,00
952,14;958,00
952,45;755,00
952,76;712,00
953,08;496,00
953,39;560,00
953,70;445,00
954,01;382,00
954,32;326,00
954,64;418,00
954,95;308,00
955,26;247,00
955,57;189,00
955,88;347,00
956,20;233,00
956,51;244,00
956,82;329,00
957,13;381,00
957,44;305,00
957,76;358,00
958,07;264,00
958,38;312,00
958,69;347,00
959,00;482,00
959,32;497,00
959,63;492,00
959,94;490,00
960,25;705,00
960,56;685,00
960,87;762,00
961,19;874,00
961,50;849,00
961,81;958,00
962,12;1147,0
962,43;1085,0
962,74;1339,0
963,06;1258,0
963,37;1663,0
963,68;1782,0
963,99;1678,0
964,30;1915,0
964,61;1865,0
964,93;2007,0
965,24;2043,0
965,55;2171,0
965,86;2062,0
966,17;2055,0
966,48;2101,0
966,79;1932,0
967,11;1944,0
967,42;1855,0
967,73;1808,0
968,04;1875,0
968,35;1806,0
968,66;1836,0
968,97;1697,0
969,28;1516,0
969,60;1571,0
969,91;1417,0
970,22;1282,0
970,53;1213,0
970,84;1128,0
971,15;1034,0
971,46;911,00
971,77;867,00
972,09;904,00
972,40;702,00
972,71;681,00
973,02;652,00
973,33;522,00
973,64;522,00
973,95;359,00
974,26;380,00
974,57;288,00
974,89;147,00
975,20;215,00
975,51;220,00
975,82;176,00
976,13;146,00
976,44;153,00
976,75;112,00
977,06;30,000
977,37;92,000
977,68;47,000
977,99;144,00
978,31;140,00
978,62;225,00
978,93;162,00
979,24;169,00
979,55;196,00
979,86;232,00
980,17;268,00
980,48;341,00
980,79;347,00
981,10;354,00
981,41;538,00
981,72;502,00
982,03;469,00
982,34;572,00
982,65;529,00
982,97;567,00
983,28;707,00
983,59;696,00
983,90;740,00
984,21;855,00
984,52;867,00
984,83;906,00
985,14;1036,0
985,45;1018,0
985,76;1122,0
986,07;1159,0
986,38;1139,0
986,69;1062,0
987,00;1177,0
987,31;1147,0
987,62;1139,0
987,93;1158,0
988,24;1191,0
988,55;975,00
988,86;1057,0
989,17;1074,0
989,48;1061,0
989,79;1018,0
990,10;1003,0
990,41;955,00
990,72;849,00
991,03;864,00
991,34;789,00
991,65;898,00
991,96;839,00
992,27;769,00
992,58;816,00
992,89;795,00
993,20;561,00
993,51;560,00
993,82;576,00
994,13;382,00
994,44;475,00
994,75;425,00
995,06;354,00
995,37;402,00
995,68;337,00
995,99;241,00
996,30;318,00
996,61;191,00
996,92;225,00
997,23;126,00
997,54;103,00
997,85;31,000
998,16;124,00
998,47;27,000
998,78;35,000
999,09;2,0000
999,40;10,0000
999,71;-66,000
1000,02;-22,000
1000,33;-20,000
1000,64;13,000
1000,95;145,00
1001,26;57,000
1001,57;59,000
1001,88;28,000
1002,19;-49,000
1002,50;44,000
1002,81;109,00
1003,12;16,000
1003,43;96,000
1003,74;244,00
1004,04;196,00
1004,35;120,00
1004,66;318,00
1004,97;318,00
1005,28;256,00
1005,59;260,00
1005,90;382,00
1006,21;403,00
1006,52;391,00
1006,83;416,00
1007,14;334,00
1007,45;449,00
1007,76;465,00
1008,07;421,00
1008,37;538,00
1008,68;581,00
1008,99;690,00
1009,30;763,00
1009,61;777,00
1009,92;717,00
1010,23;704,00
1010,54;853,00
1010,85;744,00
1011,16;676,00
1011,47;802,00
1011,77;790,00
1012,08;700,00
1012,39;702,00
1012,70;552,00
1013,01;703,00
1013,32;587,00
1013,63;570,00
1013,94;623,00
1014,25;578,00
1014,55;573,00
1014,86;541,00
1015,17;527,00
1015,48;434,00
1015,79;431,00
1016,10;269,00
1016,41;416,00
1016,72;375,00
1017,03;337,00
1017,33;380,00
1017,64;355,00
1017,95;168,00
1018,26;371,00
1018,57;166,00
1018,88;248,00
1019,19;96,000
1019,49;70,000
1019,80;23,000
1020,11;57,000
1020,42;110,00
1020,73;-34,000
1021,04;29,000
1021,35;47,000
1021,65;-80,000
1021,96;-47,000
1022,27;-79,000
1022,58;-140,00
1022,89;-44,000
1023,20;-10,0000
1023,50;6,0000
1023,81;42,000
1024,12;-24,000
1024,43;26,000
1024,74;-15,000
1025,05;67,000
1025,35;53,000
1025,66;52,000
1025,97;23,000
1026,28;60,000
1026,59;93,000
1026,89;25,000
1027,20;136,00
1027,51;27,000
1027,82;120,00
1028,13;107,00
1028,44;154,00
1028,74;264,00
1029,05;188,00
1029,36;172,00
1029,67;123,00
1029,98;157,00
1030,28;198,00
1030,59;174,00
1030,90;214,00
1031,21;292,00
1031,52;253,00
1031,82;251,00
1032,13;293,00
1032,44;287,00
1032,75;280,00
1033,05;253,00
1033,36;383,00
1033,67;314,00
1033,98;252,00
1034,29;294,00
1034,59;273,00
1034,90;233,00
1035,21;221,00
1035,52;232,00
1035,82;289,00
1036,13;242,00
1036,44;155,00
1036,75;135,00
1037,05;238,00
1037,36;213,00
1037,67;65,000
1037,98;90,000
1038,28;195,00
1038,59;163,00
1038,90;185,00
1039,21;30,000
1039,51;71,000
1039,82;166,00
1040,13;82,000
1040,44;34,000
1040,74;-1,0000
1041,05;89,000
1041,36;3,0000
1041,67;3,0000
1041,97;79,000
1042,28;-47,000
1042,59;48,000
1042,90;-21,000
1043,20;-17,000
1043,51;-24,000
1043,82;-124,00
1044,12;-90,000
1044,43;-14,000
1044,74;-76,000
1045,05;-50,000
1045,35;-172,00
1045,66;-129,00
1045,97;1,0000
1046,27;-38,000
1046,58;-3,0000
1046,89;-80,000
1047,20;-55,000
1047,50;-61,000
1047,81;5,0000
1048,12;25,000
1048,42;-28,000
1048,73;-48,000
1049,04;22,000
1049,34;-57,000
1049,65;-52,000
1049,96;-60,000
1050,26;84,000
1050,57;75,000
1050,88;113,00
1051,19;126,00
1051,49;84,000
1051,80;112,00
1052,11;110,00
1052,41;-13,000
1052,72;31,000
1053,03;-34,000
1053,33;84,000
1053,64;243,00
1053,95;93,000
1054,25;138,00
1054,56;151,00
1054,87;68,000
1055,17;179,00
1055,48;151,00
1055,78;95,000
1056,09;151,00
1056,40;12,000
1056,70;134,00
1057,01;45,000
1057,32;55,000
1057,62;75,000
1057,93;-10,0000
1058,24;215,00
1058,54;89,000
1058,85;68,000
1059,16;91,000
1059,46;35,000
1059,77;88,000
1060,07;13,000
1060,38;-42,000
1060,69;-45,000
1060,99;22,000
1061,30;16,000
1061,61;-59,000
1061,91;5,0000
1062,22;-56,000
1062,52;-137,00
1062,83;-6,0000
1063,14;-31,000
1063,44;-69,000
1063,75;-60,000
1064,05;-67,000
1064,36;-109,00
1064,67;-53,000
1064,97;-36,000
1065,28;-216,00
1065,58;-102,00
1065,89;-78,000
1066,20;-78,000
1066,50;-152,00
1066,81;-224,00
1067,11;-113,00
1067,42;-127,00
1067,73;-139,00
1068,03;-38,000
1068,34;-90,000
1068,64;-199,00
1068,95;-124,00
1069,26;-144,00
1069,56;-111,00
1069,87;-71,000
1070,17;-70,000
1070,48;-90,000
1070,78;-154,00
1071,09;-148,00
1071,40;-95,000
1071,70;-71,000
1072,01;-107,00
1072,31;-59,000
1072,62;-62,000
1072,92;-134,00
1073,23;-26,000
1073,53;-146,00
1073,84;-95,000
1074,14;-65,000
1074,45;-1,0000
1074,76;-61,000
1075,06;-33,000
1075,37;-104,00
1075,67;-34,000
1075,98;-46,000
1076,28;-88,000
1076,59;-63,000
1076,89;-110,00
1077,20;-57,000
1077,50;45,000
1077,81;-14,000
1078,11;-9,0000
1078,42;-51,000
1078,73;-87,000
1079,03;-62,000
1079,34;-43,000
1079,64;-11,000
1079,95;9,0000
1080,25;-36,000
1080,56;-55,000
1080,86;-37,000
1081,17;13,000
1081,47;-56,000
1081,78;10,0000
1082,08;51,000
1082,39;-45,000
1082,69;-13,000
1083,00;0
1083,30;45,000
1083,61;-84,000
1083,91;35,000
1084,22;-106,00
1084,52;28,000
1084,83;-4,0000
1085,13;-110,00
1085,44;-67,000
1085,74;-57,000
1086,04;-148,00
1086,35;-118,00
1086,65;-99,000
1086,96;-41,000
1087,26;-84,000
1087,57;-102,00
1087,87;11,000
1088,18;-85,000
1088,48;-73,000
1088,79;-102,00
1089,09;-99,000
1089,40;-121,00
1089,70;-113,00
1090,01;-82,000
1090,31;-147,00
1090,61;-125,00
1090,92;-39,000
1091,22;-120,00
1091,53;-13,000
1091,83;-160,00
1092,14;-69,000
1092,44;-109,00
1092,75;-230,00
1093,05;-83,000
1093,35;-118,00
1093,66;-113,00
1093,96;-86,000
1094,27;-205,00
1094,57;-52,000
1094,88;-181,00
1095,18;-167,00
1095,48;-139,00
1095,79;-112,00
1096,09;-126,00
1096,40;-119,00
1096,70;-101,00
1097,01;-102,00
1097,31;-122,00
1097,61;-89,000
1097,92;-123,00
1098,22;-112,00
1098,53;-163,00
1098,83;-201,00
1099,13;-102,00
1099,44;-66,000
1099,74;-90,000
1100,05;-55,000
1100,35;-141,00
1100,65;-131,00
1100,96;-51,000
1101,26;-117,00
1101,57;-113,00
1101,87;-138,00
1102,17;9,0000
1102,48;-127,00
1102,78;-115,00
1103,08;-26,000
1103,39;-67,000
1103,69;-88,000
1104,00;-59,000
1104,30;-132,00
1104,60;-109,00
1104,91;-150,00
1105,21;-82,000
1105,51;-190,00
1105,82;-42,000
1106,12;-71,000
1106,43;-83,000
1106,73;-39,000
1107,03;-153,00
1107,34;-97,000
1107,64;-20,000
1107,94;-170,00
1108,25;-90,000
1108,55;-5,0000
1108,85;-110,00
1109,16;-58,000
1109,46;-57,000
1109,76;-171,00
1110,07;-146,00
1110,37;-173,00
1110,67;-59,000
1110,98;-87,000
1111,28;-103,00
1111,58;-179,00
1111,89;-30,000
1112,19;-131,00
1112,49;-268,00
1112,80;-145,00
1113,10;-81,000
1113,40;-111,00
1113,71;-98,000
1114,01;-172,00
1114,31;-59,000
1114,62;-217,00
1114,92;-103,00
1115,22;-69,000
1115,52;-32,000
1115,83;-128,00
1116,13;-70,000
1116,43;-101,00
1116,74;-224,00
1117,04;-278,00
1117,34;-148,00
1117,65;-243,00
1117,95;-78,000
1118,25;-128,00
1118,55;-165,00
1118,86;-138,00
1119,16;-115,00
1119,46;-167,00
1119,77;-34,000
1120,07;-199,00
1120,37;-151,00
1120,67;-95,000
1120,98;-70,000
1121,28;-119,00
1121,58;-89,000
1121,88;-152,00
1122,19;-147,00
1122,49;-35,000
1122,79;-129,00
1123,09;-103,00
1123,40;-152,00
1123,70;-96,000
1124,00;-113,00
1124,30;-121,00
1124,61;-148,00
1124,91;-148,00
1125,21;-132,00
1125,51;-144,00
1125,82;-139,00
1126,12;-74,000
1126,42;-112,00
1126,72;-80,000
1127,03;-180,00
1127,33;-101,00
1127,63;-251,00
1127,93;-158,00
1128,24;-196,00
1128,54;-170,00
1128,84;-98,000
1129,14;-72,000
1129,45;-27,000
1129,75;-216,00
1130,05;-81,000
1130,35;-105,00
1130,65;-60,000
1130,96;-99,000
1131,26;-104,00
1131,56;-81,000
1131,86;-87,000
1132,16;-164,00
1132,47;-103,00
1132,77;-38,000
1133,07;-156,00
1133,37;-55,000
1133,67;-62,000
1133,98;-123,00
1134,28;-127,00
1134,58;-62,000
1134,88;-39,000
1135,18;-117,00
1135,49;-112,00
1135,79;-112,00
1136,09;-81,000
1136,39;-102,00
1136,69;-135,00
1136,99;-168,00
1137,30;-120,00
1137,60;-76,000
1137,90;-139,00
1138,20;-175,00
1138,50;-136,00
1138,80;-168,00
1139,11;-110,00
1139,41;-159,00
1139,71;-168,00
1140,01;-52,000
1140,31;-128,00
1140,61;-143,00
1140,92;-134,00
1141,22;-200,00
1141,52;-208,00
1141,82;-142,00
1142,12;-142,00
1142,42;-135,00
1142,72;-142,00
1143,03;-114,00
1143,33;-127,00
1143,63;-191,00
1143,93;-142,00
1144,23;-213,00
1144,53;-113,00
1144,83;-169,00
1145,13;-264,00
1145,44;-153,00
1145,74;-121,00
1146,04;-111,00
1146,34;-124,00
1146,64;-122,00
1146,94;-221,00
1147,24;-255,00
1147,54;-102,00
1147,85;-124,00
1148,15;-63,000
1148,45;-192,00
1148,75;-110,00
1149,05;-95,000
1149,35;-200,00
1149,65;-48,000
1149,95;-94,000
1150,25;-151,00
1150,55;-116,00
1150,86;-44,000
1151,16;-154,00
1151,46;-131,00
1151,76;-127,00
1152,06;-112,00
1152,36;-190,00
1152,66;-97,000
1152,96;-47,000
1153,26;-119,00
1153,56;-128,00
1153,86;-125,00
1154,16;-128,00
1154,46;-145,00
1154,77;-88,000
1155,07;-150,00
1155,37;-62,000
1155,67;-128,00
1155,97;-96,000
1156,27;-90,000
1156,57;-115,00
1156,87;-165,00
1157,17;-112,00
1157,47;-162,00
1157,77;-113,00
1158,07;-165,00
1158,37;-93,000
1158,67;-146,00
1158,97;-163,00
1159,27;-90,000
1159,57;-171,00
1159,87;-151,00
1160,17;-55,000
1160,47;-114,00
1160,77;-173,00
1161,07;-179,00
1161,38;-145,00
1161,68;-194,00
1161,98;-119,00
1162,28;-104,00
1162,58;-82,000
1162,88;-88,000
1163,18;-211,00
1163,48;-161,00
1163,78;-138,00
1164,08;-65,000
1164,38;-158,00
1164,68;-155,00
1164,98;-139,00
1165,28;-111,00
1165,58;-58,000
1165,88;-143,00
1166,18;-137,00
1166,48;-194,00
1166,78;-57,000
1167,08;-109,00
1167,38;-154,00
1167,68;-180,00
1167,98;-79,000
1168,28;-125,00
1168,58;-174,00
1168,88;-125,00
1169,18;-136,00
1169,48;-155,00
1169,77;-59,000
1170,07;-143,00
1170,37;-158,00
1170,67;-178,00
1170,97;-145,00
1171,27;-91,000
1171,57;-168,00
1171,87;-127,00
1172,17;-145,00
1172,47;-100,000
1172,77;-86,000
1173,07;-112,00
1173,37;-98,000
1173,67;-164,00
1173,97;-124,00
1174,27;-189,00
1174,57;-146,00
1174,87;-115,00
1175,17;-106,00
1175,47;-146,00
1175,77;-171,00
1176,06;-115,00
1176,36;-186,00
1176,66;-165,00
1176,96;-147,00
1177,26;-129,00
1177,56;-140,00
1177,86;-163,00
1178,16;-114,00
1178,46;-112,00
1178,76;-108,00
1179,06;-152,00
1179,36;-129,00
1179,66;-143,00
1179,95;-146,00
1180,25;-78,000
1180,55;-152,00
1180,85;-127,00
1181,15;-58,000
1181,45;-153,00
1181,75;-185,00
1182,05;-132,00
1182,35;-166,00
1182,65;-155,00
1182,94;-184,00
1183,24;-154,00
1183,54;-136,00
1183,84;-187,00
1184,14;-83,000
1184,44;-226,00
1184,74;-141,00
1185,04;-160,00
1185,34;-49,000
1185,63;-94,000
1185,93;-91,000
1186,23;-41,000
1186,53;-98,000
1186,83;-95,000
1187,13;-71,000
1187,43;-117,00
1187,72;-144,00
1188,02;-97,000
1188,32;-160,00
1188,62;-218,00
1188,92;-189,00
1189,22;-202,00
1189,52;-288,00
1189,81;-196,00
1190,11;-95,000
1190,41;-87,000
1190,71;-73,000
1191,01;-134,00
1191,31;-124,00
1191,60;-119,00
1191,90;-89,000
1192,20;-83,000
1192,50;-59,000
1192,80;-154,00
1193,10;-116,00
1193,39;-174,00
1193,69;-12,000
1193,99;-145,00
1194,29;-171,00
1194,59;-196,00
1194,89;-211,00
1195,18;-166,00
1195,48;-178,00
1195,78;-110,00
1196,08;-190,00
1196,38;-131,00
1196,67;-133,00
1196,97;-151,00
1197,27;-191,00
1197,57;-75,000
1197,87;-185,00
1198,16;-174,00
1198,46;-109,00
1198,76;-141,00
1199,06;-138,00
1199,36;-185,00
1199,65;-105,00
1199,95;-179,00
1200,25;-82,000
